# XDI/1.0 Demeter/0.9.26
# Demeter.output_filetype: multicolumn normalized mu(E)
# Element.symbol: Ti
# Element.edge: K
# Column.1: energy eV
# Column.2: #2-1%-merge
# Column.3: #3-8%-merge
# Column.4: #4-19%-merge
# Column.5: #5-28%-merge
# Column.6: REF.published_on_AFM-38%-merge
# Column.7: #10-57%-merge
# Column.8: #6-65%-merge
# Column.9: #7-74%-merge
# Column.10: #9-84%-merge
# Column.11: #8-88%-merge
#------------------------
energy  #2-1%-merge  #3-8%-merge  #4-19%-merge  #5-28%-merge  REF.published_on_AFM-38%-merge  #10-57%-merge  #6-65%-merge  #7-74%-merge  #9-84%-merge  #8-88%-merge
  4899.9877      -0.29617590      -0.24798520E-01  -0.10904737E-01  -0.65619914E-03   0.14551476E-02   0.12383992E-02   0.85677140E-03   0.12072074E-02   0.95158163E-03   0.18403760E-02
  4901.9942      -0.19482225      -0.12102565E-01  -0.39888402E-02  -0.41675979E-03   0.12316809E-02   0.10694052E-02   0.83445380E-03   0.13173910E-02   0.11604064E-02   0.14009312E-02
  4904.0013      -0.85222773E-01   0.87569825E-03   0.72520771E-03   0.56487473E-03   0.72355262E-03   0.89783853E-03   0.71357677E-03   0.84898646E-03   0.95300885E-03   0.11255918E-02
  4905.9946       0.19644534E-02   0.11979752E-02   0.10322517E-02   0.60443644E-03   0.68561273E-03   0.64816276E-03   0.67544199E-03   0.75358765E-03   0.76323600E-03   0.10929676E-02
  4908.0025       0.17916423E-01   0.16384751E-02   0.91772120E-03   0.84670238E-03   0.61118994E-03   0.47125920E-03   0.47246707E-03   0.58440465E-03   0.65890442E-03   0.76353666E-03
  4909.9967       0.18910028E-01   0.10997431E-02   0.12424536E-02   0.76582575E-03   0.42049185E-03   0.56289104E-03   0.41504028E-03   0.54198648E-03   0.33037306E-03   0.40278931E-03
  4912.0056       0.18053275E-01   0.32796041E-03  -0.17748485E-03   0.40711391E-03   0.27474351E-03   0.18065870E-03   0.21858041E-03   0.30501658E-03   0.25906388E-03   0.17252392E-03
  4914.0007       0.10891189E-01  -0.21335348E-03  -0.45796892E-03   0.72492766E-04  -0.43549047E-04   0.80871656E-04   0.14304108E-03   0.33707854E-04   0.14859256E-03  -0.33614026E-04
  4915.9962       0.79191182E-02  -0.36851582E-03  -0.31408547E-03  -0.12934092E-03  -0.56882002E-04  -0.79491899E-04   0.96546494E-04  -0.13895917E-03  -0.82088556E-04  -0.15228179E-03
  4918.0065      -0.23389810E-02  -0.13069936E-02  -0.61091288E-03  -0.84097735E-04  -0.24307050E-03  -0.34118761E-03  -0.83071148E-04  -0.44952590E-03  -0.33291749E-03  -0.19194025E-03
  4920.0029      -0.55234699E-02  -0.39942878E-03  -0.18512651E-03  -0.88233093E-03  -0.25032696E-03  -0.25413722E-03  -0.24750355E-03  -0.31628849E-03  -0.47986620E-03  -0.35556294E-03
  4921.9998       0.51826391E-02  -0.42332571E-03  -0.10260471E-02  -0.99652394E-03  -0.30597246E-03  -0.24774146E-03  -0.74264556E-03  -0.46579946E-03  -0.64377295E-03  -0.53065660E-03
  4923.9972       0.88858623E-02  -0.68153643E-03  -0.87983197E-03  -0.49259198E-03  -0.63001625E-03  -0.52536857E-03  -0.77974214E-03  -0.38927318E-03  -0.65299809E-03  -0.73196253E-03
  4925.9949      -0.13035345E-02  -0.75523730E-03  -0.33852590E-03  -0.64426157E-03  -0.84199917E-03  -0.66040293E-03  -0.35715577E-03  -0.64733985E-03  -0.54333814E-03  -0.76410713E-03
  4927.9932       0.48138121E-03  -0.22105841E-02  -0.56794537E-03  -0.58756353E-03  -0.77594242E-03  -0.71725672E-03  -0.68129588E-03  -0.10350616E-02  -0.50010366E-03  -0.84262020E-03
  4930.0061       0.29401912E-03  -0.49152382E-03  -0.73498332E-03  -0.78145968E-03  -0.86454858E-03  -0.63723054E-03  -0.79171199E-03  -0.83608710E-03  -0.12146221E-02  -0.91987219E-03
  4932.0053      -0.35384376E-02  -0.55818605E-03  -0.78504992E-03  -0.31712001E-03  -0.40184244E-03  -0.69548357E-03  -0.79638177E-03  -0.73128254E-03  -0.81644709E-03  -0.92811908E-03
  4934.0049       0.93104695E-03  -0.16576219E-02  -0.32578520E-03  -0.48823289E-03  -0.46268862E-03  -0.84276932E-03  -0.85149945E-03  -0.66132709E-03  -0.59519850E-03  -0.10853463E-02
  4936.0049      -0.38927646E-02  -0.17986885E-02  -0.27703842E-03  -0.46813016E-03  -0.42318046E-03  -0.11342102E-02  -0.56775687E-03  -0.36103407E-03  -0.56021196E-03  -0.10164615E-02
  4938.0054      -0.15420893E-02   0.92021778E-03  -0.23717204E-03  -0.32611791E-03  -0.74874694E-03  -0.73223605E-03  -0.19690413E-03  -0.58308181E-03  -0.34641593E-03  -0.88904509E-03
  4940.0063       0.26457050E-03  -0.60037713E-03  -0.79565179E-03  -0.66707630E-03  -0.55493035E-03  -0.21304349E-03  -0.21151847E-03  -0.40721026E-03  -0.37189337E-03  -0.66615709E-03
  4941.9934      -0.28045056E-02   0.77764143E-03   0.24599184E-03   0.84068158E-05  -0.53115471E-04  -0.25180651E-03   0.80042426E-04  -0.20533456E-03  -0.11352871E-03  -0.23012235E-04
  4943.9952      -0.11738576E-02   0.24799460E-03   0.59852517E-03  -0.39715002E-04   0.46318603E-03   0.32897658E-03   0.23517994E-04   0.13742507E-03   0.18830740E-03   0.36612724E-03
  4945.9974       0.40730908E-02   0.10693532E-02   0.72536377E-03   0.60816951E-03   0.90086715E-03   0.70147331E-03   0.77023367E-03   0.72848418E-03   0.58697607E-03   0.10282502E-02
  4948.0001       0.86447127E-02   0.33102613E-02   0.22260648E-02   0.14391016E-02   0.11243675E-02   0.14581694E-02   0.14593059E-02   0.14965704E-02   0.14292110E-02   0.19603733E-02
  4950.0033      -0.83088453E-02   0.30462722E-02   0.33730530E-02   0.16676115E-02   0.29214602E-02   0.21218899E-02   0.19791658E-02   0.26043575E-02   0.28244420E-02   0.31874159E-02
  4952.0068      -0.34370558E-02   0.61891706E-02   0.51101146E-02   0.32259030E-02   0.46240788E-02   0.33123387E-02   0.35162397E-02   0.44386723E-02   0.43369600E-02   0.55406534E-02
  4952.4935       0.51062182E-02   0.60920595E-02   0.69203937E-02   0.56703440E-02   0.52551790E-02   0.48525985E-02   0.48762451E-02   0.52934704E-02   0.48139344E-02   0.50714748E-02
  4952.9945       0.13973223E-02   0.68811657E-02   0.72966872E-02   0.66553566E-02   0.57418731E-02   0.48342235E-02   0.59075889E-02   0.57060213E-02   0.63169605E-02   0.73976186E-02
  4953.4955       0.51141239E-03   0.72342503E-02   0.86600886E-02   0.54384193E-02   0.70143122E-02   0.63346725E-02   0.69518433E-02   0.71006071E-02   0.62138523E-02   0.83853318E-02
  4953.9966       0.60540016E-02   0.10675245E-01   0.98744601E-02   0.72886591E-02   0.88106279E-02   0.73330950E-02   0.78448700E-02   0.86901468E-02   0.80719008E-02   0.93857672E-02
  4954.4976       0.11323555E-01   0.10476481E-01   0.11474410E-01   0.97491244E-02   0.10073417E-01   0.95183303E-02   0.86976553E-02   0.96188102E-02   0.94702914E-02   0.12444539E-01
  4954.9987       0.85591295E-02   0.14154721E-01   0.14173105E-01   0.11752043E-01   0.10971011E-01   0.11262812E-01   0.97597020E-02   0.11854988E-01   0.11670949E-01   0.13961735E-01
  4955.4999       0.11835506E-01   0.16793122E-01   0.17499130E-01   0.15118974E-01   0.14583366E-01   0.13681304E-01   0.13561988E-01   0.15392828E-01   0.13964231E-01   0.16946296E-01
  4956.0010       0.18070385E-01   0.23195475E-01   0.23718194E-01   0.16408208E-01   0.20537194E-01   0.17955296E-01   0.16786126E-01   0.20956038E-01   0.18398659E-01   0.21791472E-01
  4956.5022       0.18461096E-01   0.31278024E-01   0.32788770E-01   0.27694124E-01   0.27741220E-01   0.24226228E-01   0.25338038E-01   0.30331323E-01   0.27531802E-01   0.30182052E-01
  4957.0034       0.39875278E-01   0.56088626E-01   0.57846585E-01   0.42375183E-01   0.46224527E-01   0.41162801E-01   0.41843268E-01   0.50132680E-01   0.42810153E-01   0.52120761E-01
  4957.5047       0.67661317E-01   0.97847397E-01   0.10521385       0.87063775E-01   0.86441053E-01   0.76244053E-01   0.76758201E-01   0.95125029E-01   0.82214638E-01   0.97796960E-01
  4958.0059       0.13270824       0.16479054       0.17154770       0.14591423       0.14870186       0.13399683       0.13246658       0.15085736       0.13857525       0.16153242
  4958.4929       0.21987196       0.23785153       0.23713036       0.20286633       0.20898971       0.16872550       0.16406047       0.18174791       0.16816657       0.20000352
  4958.9942       0.29845118       0.29310208       0.29394198       0.25169420       0.28285384       0.22059078       0.21620473       0.23683766       0.21935093       0.25104621
  4959.4956       0.29117641       0.27630631       0.28892199       0.26445787       0.28398563       0.24770318       0.25312974       0.26254747       0.24382491       0.28592926
  4959.9970       0.23907007       0.22504672       0.24771498       0.22155761       0.23662440       0.23603781       0.23702281       0.24054123       0.24040242       0.27649308
  4960.4984       0.18280627       0.16517181       0.19025096       0.16254261       0.17436681       0.20003133       0.19822067       0.20439289       0.21307937       0.24654823
  4960.9998       0.11628289       0.11617136       0.13995455       0.11658440       0.12414461       0.15352774       0.15516677       0.16957681       0.18631463       0.21823355
  4961.5013       0.93524016E-01   0.97902207E-01   0.11810194       0.10006270       0.10591015       0.12887869       0.12990947       0.14326053       0.16200904       0.18989369
  4962.0027       0.88649549E-01   0.10528532       0.11982144       0.95035892E-01   0.10804907       0.11284661       0.11674138       0.12871651       0.14354430       0.16588139
  4962.5043       0.11577798       0.12475463       0.13583514       0.11502180       0.12636010       0.12667404       0.11886121       0.13748453       0.14197941       0.16357818
  4963.0058       0.12525278       0.14402637       0.15514020       0.12709229       0.14272887       0.13345856       0.13828753       0.14550530       0.14763465       0.16985920
  4963.4930       0.14115207       0.16060291       0.17033780       0.14361072       0.16027273       0.14413380       0.14473141       0.15113072       0.14827919       0.17245463
  4963.9946       0.16652316       0.18381120       0.18693598       0.15685501       0.17153745       0.14930766       0.14904427       0.15628263       0.14524682       0.17348864
  4964.4963       0.18885511       0.20093573       0.20623132       0.17426111       0.18197037       0.16100257       0.15984602       0.16749920       0.15089793       0.17446607
  4964.9979       0.20532708       0.21918205       0.22378625       0.19037384       0.19848153       0.17445945       0.17281353       0.17823870       0.15954900       0.18388479
  4965.4996       0.22199813       0.23021960       0.23903111       0.20477739       0.20483026       0.18408891       0.18514896       0.19431586       0.17217819       0.19640267
  4966.0013       0.21733006       0.24053017       0.25281770       0.21377599       0.22026021       0.20739759       0.20328562       0.21811158       0.19412665       0.22173927
  4966.5030       0.24867768       0.25673134       0.27233103       0.23136829       0.23788124       0.22425374       0.22231797       0.23481999       0.21841152       0.25131636
  4967.0048       0.26631580       0.27317323       0.29558711       0.25577809       0.25944322       0.24939853       0.24838586       0.27385371       0.25162731       0.28987266
  4967.5066       0.28444796       0.30164850       0.32774504       0.28035058       0.28562596       0.28693562       0.28143959       0.30970805       0.29319597       0.33935909
  4967.9941       0.30464316       0.33614816       0.36951973       0.32029062       0.32657176       0.33173895       0.33032046       0.36174383       0.34867048       0.39141175
  4968.4959       0.34625414       0.38053903       0.41343491       0.35542000       0.36791143       0.37630778       0.37840619       0.42293664       0.39885823       0.44413601
  4968.9978       0.39179207       0.42679619       0.46368883       0.40497060       0.43282148       0.43447064       0.43689217       0.46587462       0.45415597       0.50503697
  4969.4997       0.44755791       0.48364818       0.51800811       0.45569277       0.48546287       0.48614263       0.48707011       0.51870917       0.49767679       0.55083138
  4970.0016       0.48611310       0.53949401       0.57268637       0.51462821       0.53201167       0.53087415       0.53983463       0.55888712       0.54855706       0.59365540
  4970.5036       0.54467133       0.60342611       0.63335141       0.57252949       0.59305466       0.58919454       0.58562277       0.60953799       0.58941977       0.63384629
  4971.0055       0.61885197       0.67350911       0.69764124       0.65343534       0.65752139       0.63482023       0.63764827       0.66526557       0.63942283       0.68703432
  4971.4932       0.70923828       0.75388652       0.76669963       0.70709080       0.72156853       0.70057370       0.70514307       0.71619072       0.69155467       0.73325547
  4971.9952       0.78035082       0.82889571       0.83476956       0.80341053       0.78610753       0.76572662       0.76092879       0.78129100       0.74752893       0.78775706
  4972.4973       0.86928328       0.91193355       0.90349680       0.86526219       0.85434123       0.83117831       0.82591455       0.83820890       0.81210795       0.84371226
  4972.9994       0.94775136       0.97537236       0.96005393       0.93341349       0.92650557       0.89160192       0.89661348       0.90281108       0.86764978       0.89517499
  4973.5015        1.0260158        1.0409007        1.0130352       0.98986043       0.96934090       0.94660173       0.94602653       0.95871082       0.92591318       0.93573681
  4974.0037        1.0721766        1.0750579        1.0480908        1.0560821        1.0288595       0.98393030        1.0101039       0.99270760       0.97317032       0.97969409
  4974.5058        1.0938345        1.1051278        1.0746025        1.0899298        1.0625857        1.0324257        1.0487574        1.0415156        1.0230553        1.0206102
  4974.9937        1.1083273        1.1223138        1.0977536        1.1259132        1.1071618        1.0689192        1.0846536        1.0696217        1.0622550        1.0462179
  4975.4959        1.1197085        1.1271475        1.1097458        1.1431682        1.1194239        1.1071663        1.1143679        1.1133952        1.0872169        1.0776062
  4975.9982        1.1124901        1.1302762        1.1193056        1.1527972        1.1331259        1.1274400        1.1362759        1.1222296        1.1217786        1.0929430
  4976.5004        1.1109912        1.1310568        1.1203045        1.1469247        1.1390299        1.1277949        1.1522535        1.1467835        1.1326687        1.1085628
  4977.0027        1.1004665        1.1189590        1.1196500        1.1633479        1.1367640        1.1494682        1.1655736        1.1537758        1.1563076        1.1254439
  4977.5051        1.0950487        1.1184089        1.1141268        1.1360994        1.1296155        1.1477138        1.1705125        1.1642153        1.1579905        1.1269180
  4977.9931        1.0828781        1.1067845        1.1116708        1.1538428        1.1157636        1.1522856        1.1798653        1.1532931        1.1636861        1.1301371
  4978.4955        1.0927666        1.1097210        1.1125918        1.1362875        1.1108033        1.1521270        1.1715864        1.1636391        1.1591274        1.1320006
  4978.9979        1.0815252        1.1081363        1.1145033        1.1462222        1.1022797        1.1552868        1.1810495        1.1502011        1.1634717        1.1310182
  4979.5003        1.0911396        1.1179630        1.1194019        1.1479579        1.0871949        1.1382116        1.1656946        1.1437473        1.1642679        1.1274804
  4980.0028        1.1065012        1.1209349        1.1197560        1.1540355        1.0919242        1.1435823        1.1602263        1.1513212        1.1547340        1.1215377
  4980.5053        1.1077555        1.1255937        1.1207628        1.1554254        1.0805603        1.1436564        1.1545130        1.1370465        1.1450366        1.1231931
  4980.9935        1.1153275        1.1230873        1.1197541        1.1453347        1.0956276        1.1406594        1.1510636        1.1315783        1.1380223        1.1217332
  4981.4960        1.1213620        1.1348844        1.1248428        1.1588874        1.0861654        1.1251259        1.1445895        1.1211260        1.1372229        1.1057555
  4981.9986        1.1329882        1.1430923        1.1274702        1.1617981        1.0986150        1.1307286        1.1389607        1.1300596        1.1289308        1.1026965
  4982.5012        1.1314377        1.1479170        1.1292263        1.1451772        1.0935742        1.1251874        1.1442473        1.1251963        1.1370279        1.1007433
  4983.0038        1.1597434        1.1597365        1.1336218        1.1610214        1.0960429        1.1254612        1.1356015        1.1121143        1.1155781        1.0990464
  4983.5065        1.1644258        1.1632603        1.1377945        1.1717043        1.1072876        1.1262795        1.1292522        1.1148440        1.1201729        1.0943969
  4983.9948        1.1779438        1.1742663        1.1422130        1.1753132        1.1149450        1.1282674        1.1300654        1.1221244        1.1174816        1.0934568
  4984.4975        1.1788483        1.1869943        1.1503995        1.1785037        1.1262488        1.1320968        1.1334332        1.1192651        1.1125677        1.0916320
  4985.0003        1.1875824        1.1868079        1.1538207        1.1723024        1.1483166        1.1372124        1.1438641        1.1244636        1.1171899        1.0921608
  4985.5031        1.1866158        1.1934438        1.1539930        1.1873960        1.1453163        1.1327121        1.1435452        1.1250082        1.1163461        1.0962868
  4986.0059        1.1974259        1.1911008        1.1523575        1.1957734        1.1554128        1.1410539        1.1565675        1.1303326        1.1220571        1.0956834
  4986.4943        1.2026404        1.1940621        1.1568364        1.2170870        1.1505074        1.1351908        1.1610505        1.1296281        1.1194730        1.0964997
  4986.9972        1.1919997        1.1914545        1.1563502        1.2151310        1.1644672        1.1530745        1.1575292        1.1335338        1.1256170        1.1067646
  4987.5000        1.1908019        1.1883836        1.1574354        1.2021129        1.1693314        1.1429531        1.1594382        1.1338543        1.1259605        1.1049445
  4988.0029        1.1829071        1.1910119        1.1556233        1.1892548        1.1702805        1.1521856        1.1549450        1.1396246        1.1390799        1.1129626
  4988.5059        1.1772678        1.1888284        1.1573415        1.2060507        1.1763865        1.1512448        1.1697401        1.1502814        1.1417784        1.1099066
  4988.9945        1.1903758        1.1842490        1.1522791        1.2105922        1.1702726        1.1525202        1.1704848        1.1461728        1.1408542        1.1159492
  4989.4974        1.1663078        1.1787545        1.1530557        1.1888102        1.1674532        1.1526549        1.1750325        1.1511073        1.1430102        1.1172710
  4990.0005        1.1779795        1.1775466        1.1514268        1.1806378        1.1696244        1.1493716        1.1673680        1.1419771        1.1372252        1.1092934
  4990.5035        1.1782442        1.1731569        1.1500980        1.1958698        1.1645865        1.1498219        1.1661798        1.1456091        1.1407813        1.1182143
  4991.0066        1.1677527        1.1684578        1.1440715        1.1728116        1.1573141        1.1527196        1.1608362        1.1428370        1.1428634        1.1121663
  4991.4953        1.1701675        1.1622386        1.1402412        1.1839081        1.1559066        1.1556049        1.1535676        1.1398199        1.1349934        1.1107858
  4991.9984        1.1613535        1.1596997        1.1320340        1.1684491        1.1463465        1.1416093        1.1519678        1.1320189        1.1294116        1.1094964
  4992.5016        1.1571572        1.1510004        1.1324811        1.1441266        1.1432050        1.1358331        1.1430490        1.1341519        1.1260917        1.1017255
  4993.0047        1.1445263        1.1447832        1.1244761        1.1581446        1.1349146        1.1288062        1.1403479        1.1247338        1.1086104        1.1004137
  4993.4936        1.1361669        1.1430629        1.1195828        1.1293905        1.1189300        1.1210527        1.1336870        1.1150163        1.1157230        1.0960891
  4993.9968        1.1454268        1.1263618        1.1083887        1.1417602        1.1217632        1.1050104        1.1245145        1.1034458        1.1091044        1.0845864
  4994.5000        1.1293462        1.1186059        1.1034244        1.1286549        1.1216910        1.1098136        1.1201701        1.0983223        1.0941991        1.0839693
  4995.0033        1.1183244        1.1139322        1.0943937        1.1067143        1.1078483        1.0980187        1.1069544        1.0869568        1.0857170        1.0690262
  4995.5066        1.0970308        1.0951119        1.0837353        1.1113651        1.0986200        1.0878892        1.0891954        1.0750338        1.0753688        1.0597678
  4995.9956        1.0974080        1.0866492        1.0731134        1.0870075        1.0782482        1.0797972        1.0768833        1.0719170        1.0618440        1.0579948
  4996.4989        1.0635630        1.0768213        1.0635716        1.0736741        1.0711525        1.0606630        1.0650717        1.0602832        1.0647383        1.0471006
  4997.0023        1.0656642        1.0688857        1.0585337        1.0637706        1.0559622        1.0477144        1.0618869        1.0451846        1.0598222        1.0411669
  4997.5058        1.0681567        1.0634876        1.0533735        1.0460843        1.0486149        1.0529565        1.0589019        1.0392850        1.0401536        1.0385626
  4997.9948        1.0635041        1.0616105        1.0481583        1.0453018        1.0428223        1.0457515        1.0497441        1.0385553        1.0422062        1.0317924
  4998.4983        1.0606620        1.0489122        1.0436188        1.0428950        1.0453593        1.0356269        1.0364039        1.0392824        1.0292704        1.0222992
  4999.0018        1.0547994        1.0471001        1.0366098        1.0445403        1.0398549        1.0272455        1.0408815        1.0217881        1.0257988        1.0241204
  4999.5053        1.0323727        1.0329313        1.0281540        1.0398479        1.0317191        1.0226780        1.0267475        1.0186868        1.0166947        1.0162444
  4999.9945        1.0256293        1.0203308        1.0182263        1.0119992        1.0179755        1.0126557        1.0152052        1.0081747        1.0081624        1.0035359
  5000.4980        1.0036998        1.0144225        1.0088788        1.0026477        1.0093257       0.99329387        1.0012605       0.99061889       0.99747484       0.99861048
  5001.0017       0.99413722       0.99706275       0.99943088       0.99745877       0.99618348       0.98750199       0.99187436       0.98742014       0.98262421       0.98368845
  5001.5053        1.0011370       0.99035534       0.98606732       0.98285383       0.98140544       0.97810764       0.98791129       0.97561733       0.97474739       0.98130591
  5001.9945       0.98593199       0.98292321       0.98191996       0.97154196       0.97155937       0.96864151       0.97148755       0.97457822       0.96795296       0.97585996
  5002.4982       0.97906579       0.97638498       0.97238279       0.97446374       0.96429555       0.96216468       0.96039397       0.96306653       0.95853351       0.96432427
  5003.0019       0.96326753       0.97053314       0.96935561       0.96427083       0.95885340       0.95870307       0.96375896       0.95597485       0.95960865       0.96690698
  5003.5057       0.96790770       0.96621039       0.96273951       0.95398487       0.95176883       0.95812611       0.95255388       0.95888249       0.95444573       0.95783460
  5003.9951       0.97068374       0.96002740       0.96037916       0.94547476       0.94464107       0.94955660       0.94746083       0.94669830       0.94258918       0.96020859
  5004.4988       0.96127472       0.95267129       0.95549640       0.95299557       0.94429378       0.94749784       0.94922077       0.95051141       0.94169483       0.95079876
  5005.0027       0.95718455       0.94857047       0.95260575       0.94906117       0.94135802       0.94548974       0.94310257       0.93965812       0.94197194       0.95028515
  5005.5065       0.94374565       0.94923350       0.94930229       0.93351561       0.93576946       0.93431539       0.93309521       0.94184124       0.93651951       0.94920742
  5005.9960       0.95202449       0.94403066       0.95088875       0.94740804       0.92984231       0.92317539       0.93652091       0.93602309       0.93703546       0.95066340
  5006.4999       0.94468672       0.94506454       0.94805454       0.92569685       0.93030443       0.93405151       0.94046611       0.93505425       0.93799629       0.94613302
  5007.0038       0.94114189       0.94103469       0.94640371       0.93647690       0.93338191       0.93467839       0.94630599       0.93759691       0.93113211       0.94866929
  5007.4934       0.94725436       0.94176804       0.94479366       0.93049169       0.93598847       0.93458553       0.93198930       0.94114919       0.93810068       0.94423033
  5007.9973       0.94676326       0.93648854       0.94383312       0.92115624       0.92886579       0.93363191       0.93784817       0.94019166       0.94153019       0.94784930
  5008.5014       0.93779183       0.93704744       0.94155549       0.93444976       0.93161137       0.93448306       0.94218677       0.93465121       0.93878286       0.94795509
  5009.0054       0.93663472       0.93156774       0.93823766       0.93711388       0.92818394       0.92374086       0.93415421       0.93577401       0.93034602       0.95001038
  5009.4950       0.92264728       0.93258885       0.93659530       0.92845923       0.91938608       0.92117572       0.92987063       0.93434477       0.92398990       0.94822337
  5009.9991       0.92429907       0.92766784       0.93409671       0.91946322       0.92181944       0.91889327       0.92647789       0.92517694       0.92427945       0.93840781
  5010.5032       0.92497363       0.92315557       0.93012701       0.92503055       0.91756622       0.92002136       0.92399685       0.92727863       0.92848656       0.93631104
  5010.9930       0.91392572       0.91695765       0.92853798       0.91053138       0.92418294       0.91878001       0.91364016       0.92628811       0.92593895       0.92890598
  5011.4971       0.91289736       0.91184778       0.92129270       0.91528901       0.91664874       0.92140862       0.92126414       0.92251173       0.92143357       0.93413628
  5012.0013       0.89716947       0.91576518       0.92115609       0.92542247       0.91209552       0.91772434       0.91121683       0.92041925       0.91615399       0.92981161
  5012.5056       0.90552639       0.91412486       0.91857485       0.91714089       0.91174185       0.90611912       0.91316807       0.91977210       0.91494065       0.93335591
  5012.9954       0.90186954       0.90879610       0.91919946       0.89615233       0.90950926       0.91284183       0.91118141       0.91352725       0.92159190       0.92850659
  5013.4997       0.90483669       0.91244811       0.91879542       0.90571603       0.90439017       0.91398080       0.91558394       0.91669346       0.91827136       0.93127522
  5014.0040       0.91681192       0.90803007       0.91818892       0.90170230       0.90548830       0.91325316       0.90340310       0.92270399       0.91064752       0.92710945
  5014.4939       0.90212405       0.90980488       0.91724477       0.90838624       0.91350654       0.91020768       0.90935481       0.91374171       0.91256303       0.92587728
  5014.9982       0.89855244       0.91111499       0.91664175       0.90100233       0.92489181       0.90331210       0.91832846       0.91640054       0.91513627       0.92446070
  5015.5026       0.90780984       0.90919395       0.91761528       0.90673567       0.91167433       0.90286707       0.91512107       0.91961030       0.91466986       0.92572952
  5015.9926       0.91232568       0.90901970       0.91607146       0.89869683       0.90971632       0.91035611       0.91337570       0.91684300       0.91216028       0.92694623
  5016.4970       0.90527043       0.90681892       0.91987514       0.88872353       0.91380065       0.91249433       0.91221349       0.92153889       0.91561512       0.92628328
  5017.0015       0.90868604       0.90971183       0.91719478       0.89931178       0.91907551       0.91264763       0.92037137       0.92087339       0.91338014       0.92873378
  5017.5060       0.90125317       0.91305956       0.91728646       0.90193782       0.91704091       0.91410951       0.92058935       0.92312712       0.91910651       0.92898574
  5017.9961       0.90919299       0.90968994       0.92039664       0.91487371       0.90923850       0.91632060       0.92945299       0.91925636       0.91313250       0.92927567
  5018.5006       0.90830269       0.90878465       0.92034948       0.90812638       0.92360524       0.91832305       0.92673717       0.92341318       0.92574879       0.92819218
  5019.0052       0.91021904       0.91203277       0.91969039       0.91046892       0.91883615       0.91282199       0.91667444       0.92018989       0.92138791       0.93065909
  5019.4954       0.90690942       0.91292543       0.91982272       0.91075547       0.91968854       0.91869013       0.91574226       0.92222135       0.92005740       0.93296928
  5020.0000       0.91119354       0.91577626       0.92201851       0.90706544       0.92122873       0.91887630       0.92040018       0.92250562       0.92295183       0.93665132
  5020.9949       0.90379457       0.91376880       0.92384672       0.89971743       0.92427744       0.91913641       0.92968627       0.92303307       0.92873632       0.94393458
  5022.0043       0.90442628       0.91722065       0.92712083       0.92061794       0.92849876       0.92686319       0.92465483       0.93109069       0.93240990       0.94045457
  5022.9994       0.91120410       0.92171997       0.93131566       0.93064836       0.93156724       0.93229472       0.92817550       0.93704523       0.93208938       0.94215397
  5023.9946       0.91153955       0.92464186       0.93649482       0.92831780       0.93339638       0.93513757       0.94143616       0.94062888       0.92743036       0.94979014
  5025.0044       0.93073204       0.93104865       0.93907291       0.92944158       0.93416851       0.94182949       0.94374763       0.94221223       0.94277792       0.95194466
  5025.9998       0.92384437       0.93481059       0.94243087       0.93087827       0.93828301       0.94771918       0.94706856       0.94674645       0.95139201       0.95461675
  5026.9953       0.93801857       0.93923654       0.95049436       0.93251094       0.94665912       0.95248955       0.95238184       0.95512692       0.95061701       0.95832022
  5028.0054       0.93559760       0.94838215       0.95333640       0.93655874       0.95494447       0.95388099       0.95345344       0.95444358       0.95812538       0.96238508
  5029.0011       0.95188040       0.94990206       0.95617170       0.94376171       0.96174049       0.95561175       0.95601377       0.95788948       0.96276299       0.96636173
  5029.9969       0.94543277       0.95464840       0.96271008       0.95521655       0.96662906       0.95824486       0.96118950       0.96819514       0.96255343       0.97026042
  5030.9929       0.95955701       0.96117394       0.96733098       0.95795933       0.97258613       0.96532519       0.97681180       0.96832564       0.96532346       0.97338602
  5032.0033       0.95444102       0.96502597       0.97282982       0.96083112       0.97576724       0.97044114       0.98562260       0.96996085       0.97186346       0.97794753
  5032.9995       0.95420195       0.97036144       0.97511700       0.96549756       0.97410187       0.97130273       0.98098340       0.97596113       0.98371633       0.98482544
  5033.9957       0.97562370       0.97630319       0.98137230       0.97145962       0.97164061       0.97669164       0.98095649       0.97905964       0.98634727       0.98634061
  5035.0065       0.96705167       0.98109858       0.98204376       0.97462872       0.97355426       0.98210200       0.98236880       0.98270713       0.98785796       0.98861120
  5036.0030       0.97462651       0.98577978       0.98595990       0.97214522       0.98368501       0.98602017       0.98504031       0.98805888       0.98991404       0.99373564
  5036.9996       0.97664429       0.98878864       0.99261742       0.99197928       0.98819619       0.98932543       0.99120397       0.99108576       0.99045135       0.99771760
  5037.9962        1.0010386       0.99309457       0.99570882        1.0078574       0.99216952       0.99291141       0.99601946       0.99411303       0.99310451       0.99938133
  5038.9930       0.98966795       0.99611378       0.99755636        1.0053931       0.99739764       0.99737805       0.99636594       0.99814804        1.0010543       0.99645712
  5040.0043        1.0029452       0.99920896       0.99970583        1.0135625       0.99405130        1.0002467        1.0010193       0.99891112        1.0033144       0.99846385
  5041.0013        1.0043533        1.0020070        1.0026269        1.0181868       0.99300625        1.0042270        1.0066277        1.0008671        1.0046873        1.0025655
  5041.9984        1.0057248        1.0088057        1.0074710        1.0073141        1.0031995        1.0121801        1.0120444        1.0079967        1.0076374        1.0088209
  5042.9956        1.0106873        1.0115282        1.0100658        1.0159053        1.0054924        1.0116657        1.0121556        1.0104720        1.0130498        1.0078657
  5043.9928        1.0205214        1.0181479        1.0165235        1.0240411        1.0069669        1.0115103        1.0125786        1.0133399        1.0183809        1.0075796
  5045.0047        1.0273084        1.0213907        1.0195131        1.0143517        1.0127705        1.0196354        1.0184545        1.0213807        1.0214485        1.0154205
  5046.0022        1.0279196        1.0263645        1.0221200        1.0173874        1.0160637        1.0234273        1.0200130        1.0216244        1.0195819        1.0144741
  5046.9998        1.0327293        1.0284674        1.0230607        1.0260131        1.0189974        1.0277328        1.0207912        1.0211655        1.0173238        1.0130411
  5047.9975        1.0339334        1.0282840        1.0252966        1.0392362        1.0235085        1.0386802        1.0237941        1.0271891        1.0193843        1.0199810
  5048.9953        1.0421637        1.0343876        1.0265937        1.0326156        1.0280218        1.0373225        1.0272249        1.0263472        1.0236050        1.0251370
  5049.9932        1.0256199        1.0343822        1.0315724        1.0251678        1.0325628        1.0334629        1.0304733        1.0241196        1.0285474        1.0287981
  5051.0056        1.0350085        1.0370647        1.0323739        1.0487631        1.0372803        1.0406216        1.0322663        1.0280807        1.0327879        1.0294264
  5052.0038        1.0227055        1.0390631        1.0344242        1.0397798        1.0353358        1.0422572        1.0330654        1.0321853        1.0340185        1.0278738
  5053.0020        1.0456723        1.0399462        1.0353417        1.0240684        1.0315701        1.0407516        1.0338498        1.0349229        1.0336689        1.0261264
  5054.0003        1.0481142        1.0386147        1.0352450        1.0471307        1.0335232        1.0357790        1.0367293        1.0304206        1.0320732        1.0282745
  5054.9987        1.0301646        1.0428029        1.0336941        1.0525878        1.0416287        1.0373639        1.0362852        1.0310376        1.0331397        1.0292460
  5055.9972        1.0376494        1.0435751        1.0317254        1.0506062        1.0497493        1.0411755        1.0350439        1.0341335        1.0354759        1.0289210
  5056.9958        1.0456365        1.0403725        1.0358315        1.0624598        1.0369462        1.0364462        1.0401928        1.0351710        1.0366208        1.0245440
  5057.9946        1.0426578        1.0361364        1.0325829        1.0548399        1.0354782        1.0355354        1.0419507        1.0370852        1.0364271        1.0251388
  5058.9934        1.0420604        1.0376268        1.0346596        1.0371067        1.0409133        1.0364323        1.0415579        1.0390503        1.0349700        1.0280964
  5060.0068        1.0459944        1.0362790        1.0344490        1.0384997        1.0449940        1.0318433        1.0407575        1.0362522        1.0293195        1.0240232
  5061.0058        1.0414028        1.0391091        1.0321280        1.0344419        1.0419245        1.0324413        1.0372819        1.0341042        1.0267483        1.0219846
  5062.0050        1.0355754        1.0350230        1.0301953        1.0268529        1.0349040        1.0358047        1.0321731        1.0323930        1.0259771        1.0215163
  5063.0042        1.0215937        1.0317379        1.0264106        1.0199716        1.0363835        1.0320194        1.0287207        1.0310658        1.0230989        1.0240679
  5064.0035        1.0240150        1.0278508        1.0266092        1.0278227        1.0395965        1.0270619        1.0266934        1.0287798        1.0229529        1.0237070
  5065.0030        1.0245174        1.0280866        1.0271664        1.0458540        1.0435054        1.0215772        1.0259977        1.0258419        1.0245454        1.0210771
  5066.0025        1.0180092        1.0244312        1.0221152        1.0363751        1.0348354        1.0235500        1.0290976        1.0248897        1.0182534        1.0191098
  5067.0021        1.0282489        1.0266569        1.0228723        1.0268268        1.0269223        1.0240675        1.0269012        1.0222459        1.0180577        1.0174697
  5068.0019        1.0239153        1.0173647        1.0151775        1.0174588        1.0197512        1.0233123        1.0202264        1.0182080        1.0231199        1.0161330
  5069.0017        1.0153901        1.0172505        1.0153266        1.0189590        1.0156441        1.0235727        1.0241320        1.0191691        1.0206438        1.0153368
  5070.0017        1.0280184        1.0160237        1.0142299        1.0183835        1.0178233        1.0216724        1.0218064        1.0173071        1.0150743        1.0121680
  5071.0017        1.0083554        1.0119972        1.0143658        1.0157319        1.0262901        1.0176110        1.0132485        1.0126215        1.0064111        1.0066261
  5072.0019        1.0076972        1.0104639        1.0113434        1.0202173        1.0185139        1.0112669        1.0089718        1.0139305        1.0098242        1.0088714
  5073.0021        1.0149685        1.0088493        1.0095361        1.0195580        1.0138789        1.0044464        1.0058729        1.0107127        1.0094625        1.0100986
  5074.0025       0.99869311        1.0083041        1.0078001        1.0130585        1.0129074       0.99710914        1.0040624        1.0023586        1.0047594        1.0101175
  5075.0029        1.0072070        1.0063696        1.0050324        1.0093935        1.0081268        1.0039504       0.99887584        1.0040734        1.0092266        1.0095832
  5076.0035        1.0047843        1.0028145        1.0020495        1.0056074        1.0062177        1.0052098       0.99675156        1.0021471        1.0090343        1.0075750
  5077.0042        1.0080238       0.99919746        1.0013107        1.0015330        1.0081200       0.99873688       0.99865915       0.99513784        1.0025146        1.0037304
  5078.0049        1.0108105       0.99684986       0.99646123        1.0155568        1.0009750       0.99643258        1.0026924       0.99671007       0.99827139        1.0038179
  5079.0058        1.0041293       0.99451927       0.99582562        1.0167445       0.99680171       0.99308491        1.0024344       0.99742804       0.99602847        1.0017443
  5080.0067        1.0131848       0.99641832       0.99650627       0.99784638       0.99776443       0.98783504       0.99585405       0.99607183       0.99640623       0.99620079
  5080.9933       0.99561531       0.99318350       0.99550793       0.99269484       0.99072683       0.99057120       0.99340051       0.99549827       0.99643332       0.99746157
  5081.9944       0.99740316       0.99493539       0.99274648       0.99113977       0.98637032       0.99147394       0.99183213       0.99374197       0.99472502       0.99829738
  5082.9957       0.98910319       0.99181714       0.98934586       0.99337741       0.98825098       0.98771164       0.99109492       0.98983654       0.99011197       0.99713304
  5083.9971       0.99147144       0.98562741       0.98883268       0.99079750       0.98906179       0.98737304       0.98464272       0.99283383       0.98696525       0.99549526
  5084.9985       0.97235468       0.98873575       0.98747586       0.98832487       0.99105657       0.98735237       0.98260956       0.99417421       0.98526851       0.99480234
  5086.0001        1.0078088       0.98631149       0.98708822       0.98756337       0.99568531       0.98688161       0.99094501       0.99014233       0.98593181       0.99609294
  5087.0018       0.99346150       0.98704249       0.98606804       0.98942379       0.98756037       0.97822350       0.98182442       0.98660984       0.98733036       0.98999490
  5088.0035       0.97630435       0.98643424       0.98564434       0.98955150       0.98236698       0.97492205       0.97492471       0.98644314       0.98830037       0.98502680
  5089.0054       0.97857650       0.98454848       0.98529790       0.98498699       0.98858761       0.98616087       0.97992842       0.99305467       0.98807360       0.98549141
  5089.9928       0.99192319       0.98368196       0.98595157       0.98133176       0.98334683       0.98299190       0.98007003       0.98735660       0.98813438       0.98591596
  5090.9949       0.99637269       0.98491267       0.98462550       0.97769852       0.97970372       0.97727600       0.97876277       0.98135060       0.98611343       0.98531347
  5091.9971       0.97910074       0.98357017       0.98789752       0.97371465       0.98767721       0.97437517       0.97684420       0.98265843       0.97859318       0.98209512
  5092.9993       0.98396669       0.98271826       0.98358302       0.98202235       0.98044013       0.98054126       0.98223363       0.98206763       0.98216808       0.97939174
  5094.0017       0.97987288       0.98145310       0.98276887       0.99053860       0.97348326       0.98692864       0.98725363       0.98020492       0.98630171       0.97854930
  5095.0042       0.99034551       0.98200859       0.98202962       0.98905596       0.98049401       0.98614011       0.98486709       0.97621439       0.98250758       0.98277485
  5096.0067       0.98480762       0.98150041       0.98362366       0.99103125       0.98158058       0.98617376       0.97994303       0.97911416       0.98282260       0.98116322
  5096.9949       0.97743714       0.98061823       0.98123108       0.99204629       0.98053335       0.98479004       0.97581613       0.98196855       0.98450860       0.97981904
  5097.9976       0.97638994       0.98458968       0.98000512       0.98580984       0.97905225       0.97751720       0.97710732       0.97680521       0.98618529       0.98611852
  5099.0005       0.97200093       0.97703644       0.98510376       0.98365375       0.97601955       0.97625290       0.97766257       0.98084844       0.98285889       0.98350343
  5100.0035       0.98972343       0.98124046       0.98190750       0.98307607       0.97338712       0.97813674       0.97853943       0.98726631       0.97943975       0.97901400
  5101.0066       0.98584008       0.98012629       0.98197819       0.98232999       0.97497359       0.98319312       0.98196413       0.98837529       0.98387897       0.98142957
  5101.9952       0.97659768       0.98074951       0.98197030       0.97943641       0.98150454       0.98865185       0.98041181       0.98697120       0.98322236       0.98188425
  5102.9984       0.99103376       0.98256537       0.98682362       0.97569235       0.98864971       0.99244886       0.97829862       0.98506788       0.98057338       0.98183616
  5104.0018       0.99932403       0.98482733       0.98469386       0.97302316       0.98653276       0.98629109       0.98525033       0.98671621       0.97992689       0.98381685
  5105.0053        1.0026043       0.98190911       0.98464945       0.97410331       0.98389347       0.98319761       0.98461813       0.98854358       0.98444274       0.98543170
  5105.9943       0.98613284       0.98513426       0.98426047       0.97742882       0.98167786       0.98190455       0.98087031       0.98945450       0.98944549       0.98673697
  5106.9980       0.98529027       0.98483898       0.98600500       0.98294449       0.98357493       0.98175783       0.98192507       0.98415029       0.98122546       0.98743629
  5108.0017       0.99500654       0.98257861       0.98572566       0.98324661       0.98601365       0.98512615       0.98257553       0.98250486       0.98133321       0.99130529
  5109.0056       0.98137826       0.98220372       0.98649662       0.98031395       0.98780233       0.99046366       0.98325067       0.98364893       0.98622473       0.99639496
  5109.9950       0.97987661       0.98321283       0.98598740       0.97776820       0.98139881       0.99374513       0.98621419       0.98881716       0.98733554       0.99505045
  5110.9991       0.97943547       0.98664250       0.98742820       0.97926002       0.98330989       0.99319937       0.98785961       0.99179274       0.98624020       0.99224884
  5112.0032       0.98374934       0.98509220       0.98898871       0.98378155       0.99074017       0.99068337       0.98842202       0.99280281       0.98378920       0.98912855
  5112.9929       0.98910870       0.98750409       0.98811907       0.98984285       0.99279341       0.99735049       0.98761197       0.98963735       0.98397420       0.99427311
  5113.9973       0.98453467       0.99070204       0.98852598       0.98933315       0.99394292       0.99512557       0.99045702       0.98769335       0.98825198       0.99751942
  5115.0018       0.98191483       0.98779265       0.98869202       0.98385548       0.99437304       0.98626086       0.99573628       0.98713041       0.99551121       0.99901249
  5116.0063       0.98642354       0.98931306       0.99254184       0.98538298       0.99533812       0.98815193       0.99124140       0.99378565       0.99710318       0.99706275
  5116.9964       0.99434759       0.98733300       0.99340231       0.98769113       0.99614230       0.99320029       0.99316071       0.99652295        1.0000324       0.99610460
  5118.0012       0.99161243       0.99070834       0.99262255       0.99076669       0.99678197        1.0009353        1.0004925       0.99590662        1.0041006       0.99600318
  5119.0060        1.0049487       0.99424924       0.99204565       0.99503563       0.99506939       0.99835377       0.99618070       0.99454279        1.0027455       0.99686360
  5119.9964       0.98193016       0.99190734       0.99457152       0.99598541       0.99436632       0.99683936       0.99450811       0.99510522        1.0008736       0.99848061
  5122.0066        1.0058511       0.99711496       0.99583390       0.99143570       0.99491121       0.99581078       0.99624890        1.0000414       0.99603176        1.0032852
  5124.0026       0.99855209       0.99689107       0.99986555       0.99013144        1.0002645       0.99264093        1.0002829        1.0045665        1.0020418        1.0045714
  5125.9990        1.0015270       0.99985174       0.99936634       0.99431270       0.99563215       0.99615290       0.99858560        1.0070628        1.0047475        1.0020325
  5127.9958        1.0006994        1.0021965        1.0013799       0.99955632       0.99872701        1.0031295        1.0005838        1.0057730        1.0080633        1.0045059
  5129.9930        1.0100607        1.0052454        1.0020936        1.0017042        1.0080172        1.0079681        1.0069174        1.0024501        1.0116647        1.0101178
  5132.0052        1.0067984        1.0058463        1.0039353       0.99675814        1.0027501        1.0025095        1.0094789        1.0024607        1.0110485        1.0062447
  5134.0032        1.0137728        1.0069055        1.0065835        1.0031632        1.0063557        1.0055663        1.0073582        1.0066383        1.0181998        1.0038407
  5136.0015        1.0173523        1.0042059        1.0049064        1.0018401        1.0087446        1.0074446        1.0057102        1.0070115        1.0104243        1.0052624
  5138.0003        1.0084850        1.0054472        1.0061566        1.0018706        1.0097602        1.0095269        1.0049001        1.0089757        1.0047292        1.0073712
  5139.9994        1.0154317        1.0049976        1.0074415        1.0018772        1.0099183        1.0112142        1.0058435        1.0100174        1.0056054        1.0071824
  5141.9990        1.0097508        1.0131929        1.0081764       0.99015330        1.0104425        1.0099390        1.0099711       0.99976858        1.0051963        1.0018055
  5143.9989        1.0093213        1.0107187        1.0080251        1.0036893        1.0061148        1.0090076        1.0084066        1.0057510        1.0082839       0.99896635
  5145.9992        1.0051065        1.0096451        1.0077776       0.99795612        1.0011139        1.0109609        1.0095130        1.0046566        1.0040523        1.0033769
  5147.9998        1.0061137        1.0076801        1.0059286       0.99731074        1.0008170        1.0094311        1.0081051        1.0038387        1.0024099        1.0063110
  5150.0009        1.0119708        1.0037883        1.0056941        1.0059971        1.0059305        1.0037102        1.0040093        1.0062057        1.0039488        1.0050199
  5152.0024        1.0167172        1.0071202        1.0072511        1.0074703        1.0123436       0.99891885        1.0021926        1.0100007       0.99968273        1.0029626
  5154.0042        1.0043545        1.0118797        1.0064033        1.0031577        1.0077155       0.99683656       0.99557997        1.0034957        1.0007431       0.99669790
  5156.0064        1.0088564        1.0102087        1.0068735        1.0071672        1.0011373       0.99825689        1.0030344        1.0061223        1.0021592       0.99832440
  5157.9944        1.0089501        1.0077505        1.0033531        1.0080800       0.99992408        1.0024694        1.0063161        1.0060761        1.0027440        1.0027145
  5159.9974       0.99798257        1.0028638        1.0065501        1.0048628        1.0059603        1.0058194        1.0031910        1.0028421        1.0006960        1.0056805
  5162.0008        1.0099239        1.0054712        1.0049880        1.0065762        1.0158783        1.0014916        1.0068832        1.0069392       0.99355600        1.0036342
  5164.0045        1.0088072        1.0014960        1.0033568       0.99834846        1.0088457        1.0113348       0.99912434        1.0018339       0.99873055        1.0014790
  5165.9940        1.0046463        1.0028167        1.0046179       0.99733043        1.0032027        1.0069932       0.99876439        1.0020931       0.99741388        1.0025054
  5167.9986        1.0138831        1.0072463       0.99967199       0.99639852        1.0009921       0.99994210       0.99960177        1.0035308       0.99614552        1.0016301
  5170.0035       0.99928012        1.0031575        1.0021092       0.99414865        1.0007943       0.99573906        1.0001570        1.0045697       0.99630018       0.99908745
  5171.9941        1.0041036        1.0009593       0.99776983       0.99488785       0.99747690       0.99395831        1.0036316        1.0062188       0.99403815        1.0005276
  5173.9998        1.0033000        1.0015976        1.0000244       0.99624826        1.0024230        1.0040163       0.99219006        1.0035309       0.99942685        1.0009666
  5176.0058       0.99364171        1.0059209        1.0091326       0.99862343        1.0008973       0.99640930       0.99774055        1.0011574        1.0024415        1.0088509
  5177.9976       0.98968898        1.0010479        1.0028447        1.0054222        1.0025399       0.99573047        1.0030234        1.0021785        1.0013672        1.0078940
  5180.0044       0.99070642        1.0014372       0.99916766        1.0089651        1.0059593        1.0032646        1.0028887        1.0034882       0.99790558       0.99758677
  5181.9969       0.99022088        1.0005352       0.99831892       0.99026047       0.99877763       0.99734588        1.0038262       0.99582891       0.99719152       0.99306713
  5184.0044        1.0166986       0.99983026       0.99974589       0.99216772       0.99823056       0.99513247        1.0066076       0.99540846       0.99662271       0.99636363
  5185.9977        1.0115800        1.0014310        1.0010335       0.99145239       0.99524661       0.99327727        1.0024017       0.99330410       0.99489063       0.99547724
  5188.0060       0.99838060       0.99791876       0.99865232       0.99721039       0.99824066       0.99860437       0.99739815       0.99293377       0.99254094       0.99547188
  5190.0000        1.0039764       0.99832786       0.99659350        1.0051212        1.0025545        1.0054587       0.99612210       0.99295197       0.99360589       0.99689472
  5191.9944       0.99240220        1.0024328       0.99851261       0.99817368       0.99101564       0.99635789        1.0013204       0.98739289        1.0054388       0.99594694
  5194.0039       0.99273619        1.0001448       0.99709962        1.0052848       0.98880414       0.99857320        1.0040527        1.0022045        1.0004287       0.99680786
  5195.9990       0.98491389       0.99706044       0.99601438        1.0034162       0.99887974       0.99425458        1.0009052        1.0015030       0.99501211       0.99919144
  5197.9945        1.0045035        1.0011829       0.99776865        1.0022934        1.0001545       0.99509505        1.0013945       0.99603157       0.99290378        1.0007177
  5200.0051        1.0023709       0.99522726       0.99808716        1.0013804       0.99234051        1.0006226        1.0039263       0.99307342       0.99581505       0.99982254
  5203.0143       0.99611924       0.99696409       0.99713712       0.99255369       0.99891946       0.99525362       0.99639153       0.99871352        1.0026366       0.99726062
  5206.0243       0.99468181       0.99665154        1.0003378       0.99897596       0.99868508       0.99306311       0.99609982       0.99983085        1.0029543       0.99604556
  5209.0352       0.99909806       0.99580592       0.99490542       0.99880816       0.99507029       0.99228063        1.0004886        1.0001984        1.0024749       0.99410226
  5212.0469       0.98327436       0.99328556       0.99466707        1.0059458       0.98914903       0.99608198        1.0004963       0.99764357       0.99913188       0.99323243
  5215.0595       0.97529813       0.99728123       0.99704481        1.0068016       0.99397696       0.99358628       0.99126723       0.99521188       0.99154392       0.99559330
  5218.0729       0.99217069       0.99560358       0.99660400       0.99033465       0.99287834       0.99886075       0.99766551       0.99846785       0.99235042       0.99762324
  5221.0871       0.99600421       0.99056628       0.99615127       0.99673816       0.99841592       0.99773933        1.0004195       0.99628641       0.99903545       0.99958784
  5224.1021       0.99710718       0.99777817       0.99525454        1.0023654       0.99939145        1.0011738        1.0013409        1.0001322       0.99471462        1.0022723
  5227.1033       0.98960271       0.99493037       0.99833307       0.99060883       0.99986926       0.99490636        1.0047448        1.0022091       0.99933008        1.0024060
  5230.1200       0.98792544       0.99940845       0.99734029        1.0034521       0.99463223       0.99379055       0.99044670       0.99723606       0.99357038        1.0010546
  5233.1376       0.99698553       0.99696242        1.0001465       0.99693170       0.99500074        1.0042883       0.99832961       0.99351547        1.0029306       0.99781043
  5236.1412       0.98706770       0.99826363        1.0007080        1.0098506        1.0007466        1.0010251        1.0005396       0.99477594        1.0017481       0.99534099
  5239.1604       0.99804901       0.99824916        1.0006762       0.99679313        1.0003380        1.0039184        1.0013119       0.99634596       0.99918724       0.99776604
  5242.1657       0.98248559        1.0014034        1.0007801        1.0000944        1.0039079       0.99867145        1.0027886       0.99339214       0.99797653        1.0004181
  5245.1866       0.99912019       0.99875001       0.99700914       0.99700516       0.99703853       0.99827552       0.99734312       0.99835409        1.0043436       0.99709360
  5248.1935        1.0058176        1.0028771        1.0007558       0.99613219       0.99529579        1.0029102       0.99694200       0.99680889        1.0025166       0.99821849
  5251.2012        1.0019813        1.0009806        1.0005370        1.0005852        1.0036408        1.0009107        1.0050536       0.99858135        1.0056263       0.99618681
  5254.2098       0.99843228        1.0011602        1.0007503       0.99363225       0.99700268        1.0037483       0.99233230        1.0066824        1.0024645        1.0004404
  5257.2339        1.0010196       0.99852047       0.99935637        1.0050938        1.0026141        1.0058712        1.0075044        1.0064566       0.99829618        1.0017964
  5260.2441       0.99201725       0.99825964        1.0016861        1.0047227        1.0060716       0.99761414        1.0048292       0.99814824        1.0070966        1.0033430
  5263.2551        1.0111995        1.0072048        1.0056032        1.0100513        1.0045911        1.0029210       0.99815272       0.99962647       0.99808333       0.99878029
  5266.2669       0.98213488        1.0040505        1.0187721        1.0202703       0.99925138        1.0016746        1.0031769        1.0037057       0.99596220        1.0021521
  5269.2795        1.0054164        1.0008395        1.0035693        1.0188762       0.99911655        1.0052385        1.0092972        1.0021789        1.0117668        1.0063891
  5272.2929       0.99874340        1.0012217        1.0026099        1.0025109        1.0044468       0.99967107        1.0050809        1.0008574        1.0023253        1.0088353
  5275.3071        1.0006642        1.0054065        1.0054375        1.0179584        1.0063349       0.99680545       0.99535872        1.0000904        1.0045076        1.0055919
  5278.3074       0.99663791       0.99864996        1.0026179       0.99842715       0.99934447       0.99995674       0.99578369       0.99597027        1.0031550        1.0047673
  5281.3232        1.0059751        1.0011656        1.0032860       0.99798207        1.0060967        1.0104200       0.99840904        1.0037946        1.0080705        1.0065463
  5284.3398        1.0126496        1.0026400        1.0023009        1.0061250       0.99837154       0.99289657        1.0052393        1.0056733        1.0034267        1.0005584
  5287.3424        1.0022377        1.0059677        1.0012978       0.97742303       0.99827992        1.0045990       0.99683045        1.0028463        1.0035856        1.0031747
  5290.3607        1.0052741       0.99999992        1.0020938       0.99638653       0.99699965        1.0030014        1.0057025        1.0035468        1.0012862       0.99765640
  5293.3797       0.99855380        1.0039077        1.0007210       0.99783804       0.99878965        1.0024969        1.0010876        1.0017568        1.0031377       0.99803169
  5296.3847        1.0109604        1.0019807       0.99945966       0.99656205        1.0058420        1.0008749       0.99804986        1.0021543       0.99954690       0.99969309
  5299.3905       0.99874424       0.99863874        1.0029488        1.0162249       0.99081263        1.0036910        1.0019553        1.0014000       0.99922453        1.0001509
  5302.4119       0.99764163        1.0039209        1.0031606        1.0038671        1.0024374        1.0052570       0.99350084        1.0043699       0.99704265       0.99982212
  5305.4193        1.0025576       0.99981768        1.0043423        1.0117081       0.99549786        1.0039070        1.0020528        1.0003474        1.0030838        1.0010531
  5308.4274        1.0006638        1.0032359       0.99998474       0.99807457        1.0050678        1.0044836        1.0022577        1.0024447        1.0010270        1.0080159
  5311.4512        1.0066669        1.0052179        1.0034185        1.0089961        1.0055725       0.99877504        1.0127186        1.0037444        1.0117724        1.0032487
  5314.4609        1.0057620       0.99888238        1.0020765        1.0086490        1.0094847        1.0082991        1.0088273       0.99984590        1.0007110       0.99826250
  5317.4714       0.99950081        1.0033426        1.0003089       0.97967728       0.99679883       0.99589434       0.99681346       0.99937575       0.99715014        1.0029401
  5320.4827       0.98843929        1.0021652       0.99988130       0.99744949       0.99874541        1.0028237        1.0043665       0.99659260       0.99658335        1.0021912
  5323.4948        1.0094492        1.0038573        1.0008549       0.97891429        1.0038109        1.0084524       0.99860147        1.0026814       0.99458673       0.99963712
  5326.5076        1.0142806        1.0013462       0.99936520       0.98572226       0.99464589       0.99845715       0.99754522       0.99983932       0.98991328        1.0008719
  5329.5212       0.99394146       0.99999116        1.0003040       0.99273968        1.0056513        1.0077242       0.99451953        1.0007741       0.99902995       0.99594962
  5332.5356       0.99992676       0.99965386       0.99980648        1.0038740        1.0008805        1.0086284        1.0072563        1.0032156       0.99893195       0.99323721
  5335.5359       0.99702641        1.0009962       0.99978090        1.0007109        1.0002673        1.0036830        1.0049119       0.99977419        1.0018027       0.99708031
  5338.5519       0.99293086       0.99838380        1.0013346        1.0001297        1.0041045       0.99582872        1.0033305       0.99870013        1.0022998        1.0020408
  5341.5686       0.99069666       0.99797593       0.99854898        1.0057888        1.0037407       0.99492350        1.0073074        1.0021091       0.99859380        1.0038741
  5344.5712       0.99466852       0.99659980        1.0009426        1.0024219       0.99561743        1.0073018        1.0010427        1.0024005       0.99710867        1.0033099
  5347.5895        1.0049377        1.0032405        1.0000926       0.99997526       0.99878135        1.0059353       0.99465467        1.0000650       0.99767525        1.0011797
  5350.6085       0.98699206       0.99808307        1.0005764        1.0026471        1.0039616        1.0037241        1.0099996        1.0054840        1.0030072        1.0032405
  5353.6134        1.0073199        1.0023998       0.99987149        1.0152316        1.0018601       0.99182399        1.0003686        1.0015142        1.0074048        1.0008856
  5356.6191       0.99269975        1.0002436        1.0000776        1.0041501        1.0023700       0.98947264       0.99124688       0.99632008        1.0018872       0.99690308
  5359.6404        1.0020780       0.99944543       0.99880209       0.99790951        1.0026569       0.99169388       0.99176364       0.99715915       0.99856521       0.99437392
  5362.6476        1.0167909        1.0002449       0.99991459        1.0017734        1.0014064       0.99455192       0.99579070        1.0011581        1.0008368       0.99322763
  5365.6555        1.0076741       0.99981968       0.99645491       0.99251796        1.0032232       0.99998156       0.99430541       0.99992489       0.99889242       0.99284483
  5368.6791       0.99532988       0.99838539       0.99757981        1.0027018        1.0122382       0.99742109       0.99965076       0.99904058       0.99343410        1.0017282
  5371.6885        1.0097091       0.99407099       0.99982336       0.98974820       0.99558350       0.99320142        1.0012927       0.99605372        1.0013974       0.99891474
  5374.6988       0.99294619       0.99868788       0.99979428       0.99898003       0.99806812       0.99957598        1.0073907       0.99222165        1.0026834       0.99829514
  5377.7097       0.99559538       0.99900858       0.99831701        1.0007046       0.99839582        1.0082849        1.0046456       0.99480872        1.0030154        1.0003424
  5380.7214        1.0109677       0.99949853       0.99861414        1.0013825       0.99610469        1.0058836       0.99520696       0.99873853       0.99523194       0.99961983
  5383.7339        1.0006094       0.99957692       0.99565380        1.0038926       0.99508645       0.99808763       0.98999957        1.0021030       0.99051342       0.99727439
  5386.7471        1.0095555       0.99863617       0.99902436       0.99742528       0.99629648        1.0009667       0.99621478        1.0062184        1.0052938       0.99912911
  5389.7610       0.99384472       0.99963329       0.99795235       0.97985565        1.0010758       0.99684136       0.99894040       0.99842233       0.99986146       0.99827701
  5392.7757        1.0010609       0.99962229       0.99805501        1.0038071       0.99391935       0.98844200       0.99622810       0.99945983       0.99312112        1.0047528
  5395.7762       0.99082370       0.99729007       0.99752162        1.0049132       0.99378481       0.99440717       0.99706786       0.99661274       0.99767452       0.99988686
  5398.7924        1.0096921       0.99797953       0.99618193       0.99897948       0.99608771       0.99790678        1.0022045        1.0020339        1.0038641       0.99774990
  5401.8094       0.99638701       0.99991835       0.99905059       0.99671953       0.99597784        1.0007717        1.0031952        1.0028770        1.0067381       0.99729413
  5404.8121        1.0014548       0.99632588       0.99506075       0.99862903       0.99282859        1.0021849       0.99911245       0.99921342        1.0053159       0.99609639
  5407.8305        1.0127784       0.99732165       0.99697053       0.99652144       0.99018206       0.99662285       0.99768488        1.0031367        1.0013451       0.99556047
  5410.8496        1.0020620       0.99841061       0.99658223       0.98148529       0.99127097       0.99308202        1.0001570       0.99621010       0.99816300       0.99629088
  5413.8546        1.0067613       0.99716010       0.99758455       0.98690878       0.99711737       0.99745662       0.99991231       0.99986500        1.0012897        1.0006914
  5416.8602       0.99934375       0.99640853       0.99563512        1.0030652       0.99216300       0.99710850       0.99772848        1.0003166       0.99757319       0.99968367
  5419.8816        1.0144756       0.99495418       0.99595769        1.0037493       0.98739691       0.99508225       0.99518779        1.0010604       0.99840269        1.0040934
  5422.8887        1.0115422       0.99583089       0.99556121       0.99748267       0.98536975       0.99647408       0.99795721        1.0002809        1.0000813        1.0019076
  5425.8966        1.0070792       0.99848388       0.99563797       0.99294116       0.98712742        1.0010633        1.0029236        1.0007668        1.0005754       0.99255988
  5428.9201       0.99660343       0.99632903       0.99626544       0.98866851       0.99252816        1.0023539        1.0003709        1.0059811        1.0014139       0.98985199
  5431.9294        1.0108216       0.99927485       0.99500262       0.98818786       0.99259667       0.99268657       0.99146399        1.0014364       0.99408618       0.99304470
  5434.9394        1.0098388       0.99222377       0.99417626       0.99092290       0.99761432        1.0054977       0.99033525        1.0003441        1.0054924       0.99503575
  5437.9502        1.0210725       0.99510086       0.99383828       0.99485253       0.99765215        1.0024046       0.98887132       0.99198669        1.0060383       0.99395053
  5440.9617        1.0020774       0.99503116       0.99135792       0.99769881       0.99508495       0.99666074       0.99211003       0.99127492       0.99684529       0.99533484
  5443.9738       0.99761261       0.99925096       0.99296465       0.98930050       0.99729115       0.99621573       0.99522696       0.99379666       0.99751617       0.99666544
  5446.9868       0.99878952       0.99285831       0.99485771       0.98145218        1.0017802       0.99836929       0.99549830       0.99449724        1.0032090       0.99615955
  5450.0004        1.0168162       0.99541830       0.99345899       0.99624530       0.99953285       0.99558636       0.99517056       0.99432030       0.99122658       0.99522182
